File: XRD_O2_1.txt
10.0013	0.0935053
10.2443	0.0927751
10.4873	0.0973997
10.7302	0.0986978
10.9732	0.102146
11.2162	0.103931
11.4592	0.101294
11.7021	0.108312
11.9451	0.105756
12.1881	0.106446
12.431	0.105756
12.674	0.101537
12.917	0.09553365
13.16	0.0924912
13.4029	0.0891242
13.6459	0.0798345
13.8889	0.0746014
14.1318	0.0668533
14.3748	0.0607683
14.6178	0.0565089
14.8608	0.0574419
15.1037	0.157276
15.3467	0.0448663
15.5897	0.0377267
15.8326	0.0346842
16.0756	0.0313578
16.3186	0.0295323
16.5616	0.0236907
16.8045	0.0229605
17.0475	0.0209322
17.2905	0.019269
17.5335	0.01724068
17.7764	0.01350858
18.0194	0.0133057
18.2624	0.0131029
18.5053	0.0103038
18.7483	0.009817046
18.9913	0.009898179
19.2343	0.0117642
19.4772	0.007099103
19.7202	0.008600057
19.9632	0.008032129
20.2061	0.00713967
20.4491	0.005760415
20.6921	0.005476451
20.9351	0.004056631
21.178	0.00604438
21.421	0.004867957
21.664	0.004097197
21.9069	0.005314186
22.1499	0.006896272
22.3929	0.0120482
22.6359	0.0369559
22.8788	0.420226
23.1218	0.0390654
23.3648	0.0112774
23.6078	0.0131435
23.8507	0.021419
24.0937	0.0223115
24.3367	0.012819
24.5796	0.008194394
24.8226	0.004016064
25.0656	0.005719849
25.3086	0.005354752
25.5515	0.003326437
25.7945	0.003853799
26.0375	0.003650968
26.2804	0.004381161
26.5234	0.003975498
26.7664	0.004786824
27.0094	0.004097197
27.2523	0.004949089
27.4953	0.015902
27.7383	0.0311955
27.9812	0.009533082
28.2242	0.003813233
28.4672	0.004381161
28.7102	0.002555677
28.9531	0.003204738
29.1961	0.00482739
29.4391	0.005192487
29.6821	0.005679283
29.925	0.005233053
30.168	0.003610401
30.411	0.008032129
30.6539	0.0471786
30.8969	0.00604438
31.1399	0.004137763
31.3829	0.006247211
31.6258	0.0110746
31.8688	0.0115208
32.1118	0.02020202
32.3547	0.0672184
32.5977	0.478033
32.8407	0.512961
33.0837	0.0417833
33.3266	0.0161048
33.5696	0.0113991
33.8126	0.0139954
34.0555	0.011602
34.2985	0.01241329
34.5415	0.009979311
34.7845	0.008032129
35.0274	0.0074642
35.2704	0.009208551
35.5134	0.007950996
35.7564	0.005476451
35.9993	0.008518924
36.2423	0.01460387
36.4853	0.009289684
36.7282	0.006774573
36.9712	0.004949089
37.2142	0.005476451
37.4572	0.006734007
37.7001	0.008640623
37.9431	0.008884021
38.1861	0.0247454
38.429	0.251552
38.672	0.190499
38.915	0.0221492
39.158	0.008478358
39.4009	0.008316093
39.6439	0.006815139
39.8869	0.007748164
40.1298	0.01427934
40.3728	0.0932619
40.6158	0.0111152
40.8588	0.006490609
41.1017	0.005354752
41.3447	0.005841548
41.5877	0.006084946
41.8307	0.007301935
42.0736	0.009938745
42.3166	0.00636891
42.5596	0.005070788
42.8025	0.004259462
43.0455	0.005192487
43.2885	0.00450286
43.5315	0.002190581
43.7744	0.004421727
44.0174	0.004300028
44.2604	0.005841548
44.5033	0.007342501
44.7463	0.006328344
44.9893	0.008113261
45.2323	0.010385
45.4752	0.0126161
45.7182	0.007626465
45.9612	0.007220802
46.2041	0.020486
46.4471	0.0637297
46.6901	0.636891
46.9331	0.0943978
47.176	0.038822
47.419	0.0780496
47.662	0.0182954
47.905	0.009614214
48.1479	0.005719849
48.3909	0.00450286
48.6339	0.006084946
48.8768	0.00340757
49.1198	0.005476451
49.3628	0.005517018
49.6058	0.005476451
49.8487	0.00559815
50.0917	0.005233053
50.3347	0.005314186
50.5776	0.001825484
50.8206	0.003975498
51.0636	0.005841548
51.3066	0.007869863
51.5495	0.0182954
51.7925	0.004665125
52.0355	0.002839641
52.2785	0.005233053
52.5214	0.0205266
52.7644	0.0222709
53.0074	0.0104255
53.2503	0.0156586
53.4933	0.006531175
53.7363	0.004989656
53.9793	0.004624559
54.2222	0.00340757
54.4652	0.003204738
54.7082	0.0074642
54.9511	0.109488
55.1941	0.0382946
55.4371	0.0102633
55.6801	0.0100604
55.923	0.005192487
56.166	0.002880208
56.409	0.004624559
56.6519	0.003569835
56.8949	0.005192487
57.1379	0.003691534
57.3809	0.005679283
57.6238	0.00604438
57.8668	0.016186
58.1098	0.120117
58.3528	0.141455
58.5957	0.0726137
58.8387	0.0465296
59.0817	0.008437792
59.3246	0.003123606
59.5676	0.002920774
59.8106	0.003285871
60.0536	0.002271713
60.2965	0.00900572
60.5395	0.01087177
60.7825	0.003894365
61.0254	0.003326437
61.2684	0.005070788
61.5114	0.002839641
61.7544	0.004097197
61.9973	0.008113261
62.2403	0.0192284
62.4833	0.0154558
62.7262	0.014969
62.9692	0.004097197
63.2122	0.002109448
63.4552	0.003813233
63.6981	0.004381161
63.9411	0.004381161
64.1841	0.002717942
64.4271	0.002839641
64.67	0.002352846
64.913	0.002799075
65.156	0.002231147
65.3989	0.004218896
65.6419	0.0104255
65.8849	0.004867957
66.1279	0.000527362
66.3708	0.003001907
66.6138	0.002433978
66.8568	0.001176423
67.0997	0.003001907
67.3427	0.001298122
67.5857	0.007058537
67.8287	0.005719849
68.0716	0.0205266
68.3146	0.0259219
68.5576	0.0473814
68.8005	0.0795911
69.0435	0.0202426
69.2865	0.005111355
69.5295	0.002190581
69.7724	0.004340595
70.0154	0.00154152
70.2584	0.003083039
70.5014	0.001703785
70.7443	0.002555677
70.9873	0.003367003
71.2303	0.003569835
71.4732	0.0037321
71.7162	0.001987749
71.9592	0.001338688
72.2022	0.00263681
72.4451	0.002190581
72.6881	0.007991562
72.9311	0.0169161
73.174	0.009370817
73.417	0.0115614
73.66	0.009208551
73.903	0.003772666
74.1459	0.003488702
74.3889	0.004421727
74.6319	0.002758509
74.8748	0.003853799
75.1178	0.005882114
75.3608	0.006166078
75.6038	0.007504767
75.8467	0.002028315
76.0897	0.001582086
76.3327	0.002150014
76.5757	0.002880208
76.8186	0.004097197
77.0616	0.00527362
77.3046	0.008072695
77.5475	0.0418644
77.7905	0.0407691
78.0335	0.0194718
78.2765	0.009573648
78.5194	0.00900572
78.7624	0.0193501
79.0054	0.0130218
79.2483	0.005922681
79.4913	0.003204738
79.7343	0.005395319
79.9773	0.004340595
79.9975	0.004300028