File: XRD_N2_1.txt
10.0013	1.13849
10.2443	1.11438
10.4873	1.1119
10.7302	1.10865
10.9732	1.10635
11.2162	1.09813
11.4592	1.08703
11.7021	1.079
11.9451	1.0746
12.1881	1.05968
12.431	1.04954
12.674	1.05987
12.917	1.04055
13.16	1.04151
13.4029	1.04514
13.6459	1.04055
13.8889	1.02735
14.1318	1.03118
14.3748	1.02831
14.6178	1.05509
14.8608	1.03347
15.1037	1.01014
15.3467	1.01817
15.5897	1.01549
15.8326	1.00727
16.0756	1.00956
16.3186	1.00937
16.5616	1.00995
16.8045	1.01626
17.0475	1.01033
17.2905	1.01588
17.5335	1.01588
17.7764	1.01052
18.0194	1.0132
18.2624	1.00746
18.5053	1.01626
18.7483	1.01396
18.9913	1.01167
19.2343	1.02238
19.4772	1.01262
19.7202	1.01932
19.9632	1.0132
20.2061	1.01875
20.4491	1.01014
20.6921	1.02238
20.9351	1.01932
21.178	1.02659
21.421	1.01683
21.664	1.00612
21.9069	1.02047
22.1499	1.09105
22.3929	1.06044
22.6359	1.09468
22.8788	1.05471
23.1218	1.02391
23.3648	1.0329
23.6078	1.04227
23.8507	1.035
24.0937	1.02812
24.3367	1.02487
24.5796	1.02429
24.8226	1.0285
25.0656	1.02334
25.3086	1.02028
25.5515	1.02066
25.7945	1.02621
26.0375	1.01511
26.2804	1.02104
26.5234	1.03099
26.7664	1.0306
27.0094	1.04361
27.2523	1.1316
27.4953	1.06025
27.7383	1.03787
27.9812	1.04514
28.2242	1.03328
28.4672	1.04667
28.7102	1.06905
28.9531	1.06236
29.1961	1.07326
29.4391	1.18057
29.6821	1.09698
29.925	1.06044
30.168	1.14633
30.411	1.09239
30.6539	1.09334
30.8969	1.06255
31.1399	1.08416
31.3829	1.09621
31.6258	1.12643
31.8688	1.22379
32.1118	1.99847
32.3547	1.61955
32.5977	1.37835
32.8407	1.1119
33.0837	1.05662
33.3266	1.05184
33.5696	1.05738
33.8126	1.06236
34.0555	1.04686
34.2985	1.03806
34.5415	1.04705
34.7845	1.04323
35.0274	1.0505
35.2704	1.06427
35.5134	1.07708
35.7564	1.12031
35.9993	1.10922
36.2423	1.07307
36.4853	1.06676
36.7282	1.07785
36.9712	1.06446
37.2142	1.06044
37.4572	1.07976
37.7001	1.21748
37.9431	1.22341
38.1861	1.12395
38.429	1.05241
38.672	1.06025
38.915	1.04361
39.158	1.04189
39.4009	1.04342
39.6439	1.07154
39.8869	1.1578
40.1298	1.05853
40.3728	1.08531
40.6158	1.06006
40.8588	1.04686
41.1017	1.057
41.3447	1.05528
41.5877	1.05471
41.8307	1.05298
42.0736	1.05528
42.3166	1.05337
42.5596	1.05011
42.8025	1.03271
43.0455	1.04476
43.2885	1.04648
43.5315	1.04801
43.7744	1.03386
44.0174	1.03366
44.2604	1.06331
44.5033	1.05337
44.7463	1.06217
44.9893	1.05777
45.2323	1.0899
45.4752	1.07785
45.7182	1.13887
45.9612	1.08512
46.2041	1.06867
46.4471	1.09258
46.6901	1.30891
46.9331	1.16641
47.176	1.04667
47.419	1.04801
47.662	1.0593
47.905	1.04399
48.1479	1.05662
48.3909	1.04323
48.6339	1.0264
48.8768	1.02563
49.1198	1.03405
49.3628	1.04036
49.6058	1.02678
49.8487	1.03328
50.0917	1.03175
50.3347	1.03213
50.5776	1.06599
50.8206	1.10138
51.0636	1.06389
51.3066	1.04132
51.5495	1.06255
51.7925	1.04457
52.0355	1.0635
52.2785	1.05566
52.5214	1.06102
52.7644	1.0526
53.0074	1.04858
53.2503	1.03806
53.4933	1.03826
53.7363	1.05738
53.9793	1.09755
54.2222	1.06656
54.4652	1.03386
54.7082	1.04916
54.9511	1.07555
55.1941	1.08015
55.4371	1.0438
55.6801	1.0373
55.923	1.02257
56.166	1.035
56.409	1.04246
56.6519	1.03979
56.8949	1.04629
57.1379	1.07995
57.3809	1.15685
57.6238	1.10616
57.8668	1.23011
58.1098	1.27735
58.3528	1.10157
58.5957	1.05796
58.8387	1.05949
59.0817	1.04533
59.3246	1.07383
59.5676	1.07154
59.8106	1.0394
60.0536	1.03979
60.2965	1.035
60.5395	1.04093
60.7825	1.0308
61.0254	1.05853
61.2684	1.06542
61.5114	1.07881
61.7544	1.1425
61.9973	1.10826
62.2403	1.06121
62.4833	1.04208
62.7262	1.03883
62.9692	1.03309
63.2122	1.03462
63.4552	1.0308
63.6981	1.02601
63.9411	1.03673
64.1841	1.0373
64.4271	1.06083
64.67	1.06963
64.913	1.03711
65.156	1.03252
65.3989	1.02563
65.6419	1.04265
65.8849	1.04495
66.1279	1.0285
66.3708	1.02085
66.6138	1.03328
66.8568	1.04227
67.0997	1.03692
67.3427	1.06733
67.5857	1.13007
67.8287	1.10807
68.0716	1.06561
68.3146	1.09507
68.5576	1.09908
68.8005	1.04189
69.0435	1.0373
69.2865	1.03328
69.5295	1.02888
69.7724	1.03424
70.0154	1.03826
70.2584	1.02391
70.5014	1.03481
70.7443	1.03558
70.9873	1.03252
71.2303	1.03596
71.4732	1.03481
71.7162	1.04725
71.9592	1.04017
72.2022	1.03615
72.4451	1.03692
72.6881	1.04074
72.9311	1.03826
73.174	1.04533
73.417	1.05069
73.66	1.04208
73.903	1.04495
74.1459	1.04744
74.3889	1.05719
74.6319	1.05471
74.8748	1.04189
75.1178	1.04629
75.3608	1.04438
75.6038	1.03806
75.8467	1.03405
76.0897	1.03902
76.3327	1.04227
76.5757	1.03692
76.8186	1.03252
77.0616	1.03634
77.3046	1.03118
77.5475	1.05069
77.7905	1.11706
78.0335	1.1119
78.2765	1.06676
78.5194	1.0461
78.7624	1.03175
79.0054	1.04858
79.2483	1.0526
79.4913	1.03328
79.7343	1.02907
79.9773	1.03405
79.9975	1.03156