File: XRD_N2.txt
10.0013	13.8485
10.2443	11.4384
10.4873	11.1897
10.7302	10.8646
10.9732	10.635
11.2162	9.81255
11.4592	8.70314
11.7021	7.89977
11.9451	7.45983
12.1881	5.96787
12.431	4.95409
12.674	5.98699
12.917	4.05509
13.16	4.15073
13.4029	4.51415
13.6459	4.05509
13.8889	2.73527
14.1318	3.11783
14.3748	2.83091
14.6178	5.5088
14.8608	3.34736
15.1037	1.01377
15.3467	1.81714
15.5897	1.54935
15.8326	0.726855
16.0756	0.956389
16.3186	0.937261
16.5616	0.994644
16.8045	1.62586
17.0475	1.0329
17.2905	1.58761
17.5335	1.58761
17.7764	1.05203
18.0194	1.31982
18.2624	0.745983
18.5053	1.62586
18.7483	1.39633
18.9913	1.16679
19.2343	2.23795
19.4772	1.26243
19.7202	1.93191
19.9632	1.31982
20.2061	1.87452
20.4491	1.01377
20.6921	2.23795
20.9351	1.93191
21.178	2.65876
21.421	1.68324
21.664	0.612089
21.9069	2.04667
22.1499	9.10482
22.3929	6.04438
22.6359	9.46825
22.8788	5.47054
23.1218	2.39097
23.3648	3.28998
23.6078	4.22724
23.8507	3.50038
24.0937	2.81178
24.3367	2.48661
24.5796	2.42923
24.8226	2.85004
25.0656	2.33359
25.3086	2.02754
25.5515	2.0658
25.7945	2.6205
26.0375	1.51109
26.2804	2.10406
26.5234	3.0987
26.7664	3.06044
27.0094	4.36113
27.2523	13.1599
27.4953	6.02525
27.7383	3.7873
27.9812	4.51415
28.2242	3.32823
28.4672	4.66718
28.7102	6.90513
28.9531	6.23565
29.1961	7.32594
29.4391	18.0566
29.6821	9.69778
29.925	6.04438
30.168	14.6327
30.411	9.23871
30.6539	9.33435
30.8969	6.25478
31.1399	8.41622
31.3829	9.62127
31.6258	12.6435
31.8688	22.3795
32.1118	99.847
32.3547	61.9549
32.5977	37.8347
32.8407	11.1897
33.0837	5.66182
33.3266	5.18363
33.5696	5.73833
33.8126	6.23565
34.0555	4.6863
34.2985	3.80643
34.5415	4.70543
34.7845	4.32288
35.0274	5.04973
35.2704	6.42693
35.5134	7.70849
35.7564	12.0314
35.9993	10.922
36.2423	7.30681
36.4853	6.67559
36.7282	7.785
36.9712	6.44606
37.2142	6.04438
37.4572	7.97628
37.7001	21.7483
37.9431	22.3412
38.1861	12.3948
38.429	5.24101
38.672	6.02525
38.915	4.36113
39.158	4.18898
39.4009	4.342
39.6439	7.15379
39.8869	15.7804
40.1298	5.8531
40.3728	8.53099
40.6158	6.00612
40.8588	4.6863
41.1017	5.70008
41.3447	5.52793
41.5877	5.47054
41.8307	5.29839
42.0736	5.52793
42.3166	5.33665
42.5596	5.01148
42.8025	3.27085
43.0455	4.4759
43.2885	4.64805
43.5315	4.80107
43.7744	3.38562
44.0174	3.36649
44.2604	6.33129
44.5033	5.33665
44.7463	6.21653
44.9893	5.77659
45.2323	8.99005
45.4752	7.785
45.7182	13.8868
45.9612	8.51186
46.2041	6.86687
46.4471	9.25784
46.6901	30.8914
46.9331	16.6412
47.176	4.66718
47.419	4.80107
47.662	5.92961
47.905	4.39939
48.1479	5.66182
48.3909	4.32288
48.6339	2.63963
48.8768	2.56312
49.1198	3.40474
49.3628	4.03596
49.6058	2.67789
49.8487	3.32823
50.0917	3.17521
50.3347	3.21347
50.5776	6.59908
50.8206	10.1377
51.0636	6.38868
51.3066	4.1316
51.5495	6.25478
51.7925	4.45677
52.0355	6.35042
52.2785	5.56618
52.5214	6.10176
52.7644	5.26014
53.0074	4.85845
53.2503	3.80643
53.4933	3.82555
53.7363	5.73833
53.9793	9.75516
54.2222	6.65647
54.4652	3.38562
54.7082	4.91584
54.9511	7.55547
55.1941	8.01454
55.4371	4.38026
55.6801	3.72992
55.923	2.25708
56.166	3.50038
56.409	4.24637
56.6519	3.97858
56.8949	4.62892
57.1379	7.99541
57.3809	15.6848
57.6238	10.6159
57.8668	23.0107
58.1098	27.7353
58.3528	10.1568
58.5957	5.79572
58.8387	5.94874
59.0817	4.53328
59.3246	7.38332
59.5676	7.15379
59.8106	3.94032
60.0536	3.97858
60.2965	3.50038
60.5395	4.09334
60.7825	3.07957
61.0254	5.8531
61.2684	6.5417
61.5114	7.88064
61.7544	14.2502
61.9973	10.8263
62.2403	6.12089
62.4833	4.20811
62.7262	3.88294
62.9692	3.3091
63.2122	3.46213
63.4552	3.07957
63.6981	2.60138
63.9411	3.67253
64.1841	3.72992
64.4271	6.08263
64.67	6.96251
64.913	3.71079
65.156	3.25172
65.3989	2.56312
65.6419	4.26549
65.8849	4.49503
66.1279	2.85004
66.3708	2.08493
66.6138	3.32823
66.8568	4.22724
67.0997	3.69166
67.3427	6.73298
67.5857	13.0069
67.8287	10.8072
68.0716	6.56083
68.3146	9.5065
68.5576	9.90819
68.8005	4.18898
69.0435	3.72992
69.2865	3.32823
69.5295	2.88829
69.7724	3.42387
70.0154	3.82555
70.2584	2.39097
70.5014	3.48125
70.7443	3.55777
70.9873	3.25172
71.2303	3.59602
71.4732	3.48125
71.7162	4.72456
71.9592	4.01683
72.2022	3.61515
72.4451	3.69166
72.6881	4.07422
72.9311	3.82555
73.174	4.53328
73.417	5.06886
73.66	4.20811
73.903	4.49503
74.1459	4.74369
74.3889	5.7192
74.6319	5.47054
74.8748	4.18898
75.1178	4.62892
75.3608	4.43764
75.6038	3.80643
75.8467	3.40474
76.0897	3.90207
76.3327	4.22724
76.5757	3.69166
76.8186	3.25172
77.0616	3.63428
77.3046	3.11783
77.5475	5.06886
77.7905	11.7062
78.0335	11.1897
78.2765	6.67559
78.5194	4.60979
78.7624	3.17521
79.0054	4.85845
79.2483	5.26014
79.4913	3.32823
79.7343	2.90742
79.9773	3.40474
79.9975	3.15608