File: XRD_O2.txt
10.0013	9.35053
10.2443	9.27751
10.4873	9.73997
10.7302	9.86978
10.9732	10.2146
11.2162	10.3931
11.4592	10.1294
11.7021	10.8312
11.9451	10.5756
12.1881	10.6446
12.431	10.5756
12.674	10.1537
12.917	9.55336
13.16	9.24912
13.4029	8.91242
13.6459	7.98345
13.8889	7.46014
14.1318	6.68533
14.3748	6.07683
14.6178	5.65089
14.8608	5.74419
15.1037	15.7276
15.3467	4.48663
15.5897	3.77267
15.8326	3.46842
16.0756	3.13578
16.3186	2.95323
16.5616	2.36907
16.8045	2.29605
17.0475	2.09322
17.2905	1.9269
17.5335	1.72407
17.7764	1.35086
18.0194	1.33057
18.2624	1.31029
18.5053	1.03038
18.7483	0.981705
18.9913	0.989818
19.2343	1.17642
19.4772	0.70991
19.7202	0.860006
19.9632	0.803213
20.2061	0.713967
20.4491	0.576042
20.6921	0.547645
20.9351	0.405663
21.178	0.604438
21.421	0.486796
21.664	0.40972
21.9069	0.531419
22.1499	0.689627
22.3929	1.20482
22.6359	3.69559
22.8788	42.0226
23.1218	3.90654
23.3648	1.12774
23.6078	1.31435
23.8507	2.1419
24.0937	2.23115
24.3367	1.2819
24.5796	0.819439
24.8226	0.401606
25.0656	0.571985
25.3086	0.535475
25.5515	0.332644
25.7945	0.38538
26.0375	0.365097
26.2804	0.438116
26.5234	0.39755
26.7664	0.478682
27.0094	0.40972
27.2523	0.494909
27.4953	1.5902
27.7383	3.11955
27.9812	0.953308
28.2242	0.381323
28.4672	0.438116
28.7102	0.255568
28.9531	0.320474
29.1961	0.482739
29.4391	0.519249
29.6821	0.567928
29.925	0.523305
30.168	0.36104
30.411	0.803213
30.6539	4.71786
30.8969	0.604438
31.1399	0.413776
31.3829	0.624721
31.6258	1.10746
31.8688	1.15208
32.1118	2.0202
32.3547	6.72184
32.5977	47.8033
32.8407	51.2961
33.0837	4.17833
33.3266	1.61048
33.5696	1.13991
33.8126	1.39954
34.0555	1.1602
34.2985	1.24133
34.5415	0.997931
34.7845	0.803213
35.0274	0.74642
35.2704	0.920855
35.5134	0.7951
35.7564	0.547645
35.9993	0.851892
36.2423	1.46039
36.4853	0.928968
36.7282	0.677457
36.9712	0.494909
37.2142	0.547645
37.4572	0.673401
37.7001	0.864062
37.9431	0.888402
38.1861	2.47454
38.429	25.1552
38.672	19.0499
38.915	2.21492
39.158	0.847836
39.4009	0.831609
39.6439	0.681514
39.8869	0.774816
40.1298	1.42793
40.3728	9.32619
40.6158	1.11152
40.8588	0.649061
41.1017	0.535475
41.3447	0.584155
41.5877	0.608495
41.8307	0.730194
42.0736	0.993874
42.3166	0.636891
42.5596	0.507079
42.8025	0.425946
43.0455	0.519249
43.2885	0.450286
43.5315	0.219058
43.7744	0.442173
44.0174	0.430003
44.2604	0.584155
44.5033	0.73425
44.7463	0.632834
44.9893	0.811326
45.2323	1.0385
45.4752	1.26161
45.7182	0.762647
45.9612	0.72208
46.2041	2.0486
46.4471	6.37297
46.6901	63.6891
46.9331	9.43978
47.176	3.8822
47.419	7.80496
47.662	1.82954
47.905	0.961421
48.1479	0.571985
48.3909	0.450286
48.6339	0.608495
48.8768	0.340757
49.1198	0.547645
49.3628	0.551702
49.6058	0.547645
49.8487	0.559815
50.0917	0.523305
50.3347	0.531419
50.5776	0.182548
50.8206	0.39755
51.0636	0.584155
51.3066	0.786986
51.5495	1.82954
51.7925	0.466513
52.0355	0.283964
52.2785	0.523305
52.5214	2.05266
52.7644	2.22709
53.0074	1.04255
53.2503	1.56586
53.4933	0.653118
53.7363	0.498966
53.9793	0.462456
54.2222	0.340757
54.4652	0.320474
54.7082	0.74642
54.9511	10.9488
55.1941	3.82946
55.4371	1.02633
55.6801	1.00604
55.923	0.519249
56.166	0.288021
56.409	0.462456
56.6519	0.356983
56.8949	0.519249
57.1379	0.369153
57.3809	0.567928
57.6238	0.604438
57.8668	1.6186
58.1098	12.0117
58.3528	14.1455
58.5957	7.26137
58.8387	4.65296
59.0817	0.843779
59.3246	0.312361
59.5676	0.292077
59.8106	0.328587
60.0536	0.227171
60.2965	0.900572
60.5395	1.08718
60.7825	0.389437
61.0254	0.332644
61.2684	0.507079
61.5114	0.283964
61.7544	0.40972
61.9973	0.811326
62.2403	1.92284
62.4833	1.54558
62.7262	1.4969
62.9692	0.40972
63.2122	0.210945
63.4552	0.381323
63.6981	0.438116
63.9411	0.438116
64.1841	0.271794
64.4271	0.283964
64.67	0.235285
64.913	0.279908
65.156	0.223115
65.3989	0.42189
65.6419	1.04255
65.8849	0.486796
66.1279	0.0527362
66.3708	0.300191
66.6138	0.243398
66.8568	0.117642
67.0997	0.300191
67.3427	0.129812
67.5857	0.705854
67.8287	0.571985
68.0716	2.05266
68.3146	2.59219
68.5576	4.73814
68.8005	7.95911
69.0435	2.02426
69.2865	0.511135
69.5295	0.219058
69.7724	0.434059
70.0154	0.154152
70.2584	0.308304
70.5014	0.170378
70.7443	0.255568
70.9873	0.3367
71.2303	0.356983
71.4732	0.37321
71.7162	0.198775
71.9592	0.133869
72.2022	0.263681
72.4451	0.219058
72.6881	0.799156
72.9311	1.69161
73.174	0.937082
73.417	1.15614
73.66	0.920855
73.903	0.377267
74.1459	0.34887
74.3889	0.442173
74.6319	0.275851
74.8748	0.38538
75.1178	0.588211
75.3608	0.616608
75.6038	0.750477
75.8467	0.202832
76.0897	0.158209
76.3327	0.215001
76.5757	0.288021
76.8186	0.40972
77.0616	0.527362
77.3046	0.807269
77.5475	4.18644
77.7905	4.07691
78.0335	1.94718
78.2765	0.957365
78.5194	0.900572
78.7624	1.93501
79.0054	1.30218
79.2483	0.592268
79.4913	0.320474
79.7343	0.539532
79.9773	0.434059
79.9975	0.430003